# Cristaline olivine (mg2)
# The main source of these data is the measurement made by Mukai and Koike (1990, 
# Icarus 87, 180). 
# The data is constructed as following:
# 1. For wavelength between 7--200 micron, calculate (m', m") of crystallines
#    olivine by calculating 17 Lorentz oscillators (the dispersion parameters were
#    given in Mukai and Koike 1990);
# 2. For wavelength larger than 200 micron, assume m" to be proportional to
#    lambda^{-1};
# 3. For wavelength shorter than 0.3 micron, we adopt those (m") of crystalline
#    olivine (Huffman and Stapp 1973);
# 4. For 0.3 -- 2 micron, we adopt m" intermediate of Jones and Merrill 1976
#    and Martin and Crabtree 1983, very close to Draine and Lee 1984;
# 5. Smoothly connect the above m" then construct m" between 2--7 micron;
# 6. Then calculate m' from m" by using Kramers-Kronig relation.
1181    3.2
     0.010   0.975085E+00   0.170999E-01
     0.011   0.974551E+00   0.217622E-01
     0.012   0.972102E+00   0.208170E-01
     0.013   0.966768E+00   0.249088E-01
     0.014   0.963533E+00   0.289905E-01
     0.015   0.959932E+00   0.333853E-01
     0.016   0.956571E+00   0.380859E-01
     0.017   0.953427E+00   0.432318E-01
     0.018   0.950996E+00   0.486736E-01
     0.019   0.949686E+00   0.536005E-01
     0.020   0.948529E+00   0.565841E-01
     0.021   0.945267E+00   0.581805E-01
     0.022   0.939751E+00   0.609539E-01
     0.023   0.933829E+00   0.657137E-01
     0.024   0.928561E+00   0.715879E-01
     0.025   0.923918E+00   0.778473E-01
     0.026   0.919663E+00   0.842144E-01
     0.027   0.915630E+00   0.906121E-01
     0.028   0.911729E+00   0.970276E-01
     0.029   0.907916E+00   0.103432E+00
     0.030   0.904136E+00   0.109788E+00
     0.031   0.900303E+00   0.116064E+00
     0.032   0.896370E+00   0.122315E+00
     0.033   0.892374E+00   0.128506E+00
     0.034   0.888318E+00   0.134503E+00
     0.035   0.884151E+00   0.139952E+00
     0.036   0.878959E+00   0.144277E+00
     0.037   0.871118E+00   0.148514E+00
     0.038   0.861083E+00   0.155376E+00
     0.039   0.851809E+00   0.165554E+00
     0.040   0.844986E+00   0.176433E+00
     0.041   0.838891E+00   0.185730E+00
     0.042   0.831438E+00   0.194269E+00
     0.043   0.822342E+00   0.203459E+00
     0.044   0.811915E+00   0.214197E+00
     0.045   0.800907E+00   0.227326E+00
     0.046   0.790607E+00   0.242959E+00
     0.047   0.782053E+00   0.260218E+00
     0.048   0.775215E+00   0.277790E+00
     0.049   0.769492E+00   0.295120E+00
     0.050   0.764269E+00   0.311882E+00
     0.051   0.759045E+00   0.328124E+00
     0.052   0.753191E+00   0.343636E+00
     0.053   0.745778E+00   0.358696E+00
     0.054   0.735575E+00   0.373952E+00
     0.055   0.721809E+00   0.391482E+00
     0.056   0.705051E+00   0.413345E+00
     0.057   0.686274E+00   0.441362E+00
     0.058   0.667628E+00   0.477552E+00
     0.059   0.651705E+00   0.522872E+00
     0.060   0.643488E+00   0.578596E+00
     0.061   0.648464E+00   0.640215E+00
     0.062   0.668256E+00   0.701876E+00
     0.063   0.701983E+00   0.756908E+00
     0.064   0.743700E+00   0.800105E+00
     0.065   0.787841E+00   0.832897E+00
     0.066   0.831468E+00   0.856484E+00
     0.067   0.872686E+00   0.873868E+00
     0.068   0.911738E+00   0.886552E+00
     0.069   0.948208E+00   0.895256E+00
     0.070   0.981716E+00   0.901216E+00
     0.071   0.101260E+01   0.905626E+00
     0.072   0.104147E+01   0.909051E+00
     0.073   0.106877E+01   0.911774E+00
     0.074   0.109504E+01   0.913871E+00
     0.075   0.112039E+01   0.914896E+00
     0.076   0.114441E+01   0.915003E+00
     0.077   0.116724E+01   0.914581E+00
     0.078   0.118894E+01   0.913722E+00
     0.079   0.120965E+01   0.912864E+00
     0.080   0.123019E+01   0.912167E+00
     0.081   0.125103E+01   0.910599E+00
     0.082   0.127154E+01   0.907605E+00
     0.083   0.129187E+01   0.902853E+00
     0.084   0.131032E+01   0.894445E+00
     0.085   0.132397E+01   0.884195E+00
     0.086   0.133265E+01   0.874829E+00
     0.087   0.133677E+01   0.867714E+00
     0.088   0.133618E+01   0.865698E+00
     0.089   0.133482E+01   0.872259E+00
     0.090   0.133778E+01   0.885643E+00
     0.091   0.134634E+01   0.902405E+00
     0.092   0.136104E+01   0.921014E+00
     0.093   0.138343E+01   0.938514E+00
     0.094   0.141111E+01   0.950077E+00
     0.095   0.143950E+01   0.955537E+00
     0.096   0.146690E+01   0.957214E+00
     0.097   0.149308E+01   0.955937E+00
     0.098   0.151686E+01   0.952264E+00
     0.099   0.153750E+01   0.949063E+00
     0.100   0.155801E+01   0.948655E+00
     0.105   0.169865E+01   0.921288E+00
     0.110   0.176877E+01   0.804440E+00
     0.115   0.178098E+01   0.766459E+00
     0.120   0.183846E+01   0.738577E+00
     0.125   0.187041E+01   0.675741E+00
     0.130   0.189102E+01   0.650857E+00
     0.135   0.191499E+01   0.613317E+00
     0.140   0.190759E+01   0.619469E+00
     0.145   0.202954E+01   0.696348E+00
     0.150   0.222967E+01   0.573084E+00
     0.155   0.223734E+01   0.331655E+00
     0.160   0.213466E+01   0.209397E+00
     0.165   0.206379E+01   0.196448E+00
     0.170   0.204288E+01   0.175189E+00
     0.175   0.202089E+01   0.139308E+00
     0.180   0.199359E+01   0.111401E+00
     0.185   0.196701E+01   0.877461E-01
     0.190   0.194006E+01   0.700363E-01
     0.195   0.191578E+01   0.578943E-01
     0.200   0.189451E+01   0.485274E-01
     0.205   0.187538E+01   0.411759E-01
     0.210   0.185800E+01   0.353842E-01
     0.215   0.184200E+01   0.309735E-01
     0.220   0.182716E+01   0.280064E-01
     0.225   0.181378E+01   0.266071E-01
     0.230   0.180220E+01   0.262667E-01
     0.235   0.179227E+01   0.264090E-01
     0.240   0.178370E+01   0.267208E-01
     0.245   0.177616E+01   0.271183E-01
     0.250   0.176956E+01   0.276031E-01
     0.255   0.176382E+01   0.280330E-01
     0.260   0.175876E+01   0.283157E-01
     0.265   0.175420E+01   0.283605E-01
     0.270   0.174994E+01   0.282702E-01
     0.275   0.174587E+01   0.281397E-01
     0.280   0.174203E+01   0.281123E-01
     0.285   0.173848E+01   0.281594E-01
     0.290   0.173523E+01   0.282610E-01
     0.295   0.173226E+01   0.283580E-01
     0.300   0.172950E+01   0.284438E-01
     0.305   0.172695E+01   0.285187E-01
     0.310   0.172458E+01   0.285801E-01
     0.315   0.172237E+01   0.286292E-01
     0.320   0.172031E+01   0.286649E-01
     0.325   0.171837E+01   0.286906E-01
     0.330   0.171653E+01   0.287132E-01
     0.335   0.171481E+01   0.287343E-01
     0.340   0.171319E+01   0.287550E-01
     0.345   0.171165E+01   0.287764E-01
     0.350   0.171021E+01   0.287984E-01
     0.355   0.170885E+01   0.288218E-01
     0.360   0.170755E+01   0.288468E-01
     0.365   0.170634E+01   0.288730E-01
     0.370   0.170519E+01   0.288996E-01
     0.375   0.170410E+01   0.289263E-01
     0.380   0.170307E+01   0.289525E-01
     0.385   0.170209E+01   0.289776E-01
     0.390   0.170117E+01   0.290010E-01
     0.395   0.170030E+01   0.290224E-01
     0.400   0.169946E+01   0.290416E-01
     0.405   0.169868E+01   0.290584E-01
     0.410   0.169792E+01   0.290730E-01
     0.415   0.169721E+01   0.290855E-01
     0.420   0.169653E+01   0.290962E-01
     0.425   0.169587E+01   0.291056E-01
     0.430   0.169525E+01   0.291141E-01
     0.435   0.169466E+01   0.291224E-01
     0.440   0.169410E+01   0.291310E-01
     0.445   0.169355E+01   0.291398E-01
     0.450   0.169303E+01   0.291489E-01
     0.455   0.169253E+01   0.291583E-01
     0.460   0.169206E+01   0.291680E-01
     0.465   0.169160E+01   0.291778E-01
     0.470   0.169117E+01   0.291878E-01
     0.475   0.169076E+01   0.291981E-01
     0.480   0.169036E+01   0.292086E-01
     0.485   0.168997E+01   0.292192E-01
     0.490   0.168961E+01   0.292300E-01
     0.495   0.168926E+01   0.292408E-01
     0.500   0.168892E+01   0.292516E-01
     0.505   0.168861E+01   0.292626E-01
     0.510   0.168829E+01   0.292736E-01
     0.515   0.168800E+01   0.292847E-01
     0.520   0.168772E+01   0.292958E-01
     0.525   0.168745E+01   0.293070E-01
     0.530   0.168719E+01   0.293182E-01
     0.535   0.168694E+01   0.293293E-01
     0.540   0.168670E+01   0.293404E-01
     0.545   0.168647E+01   0.293514E-01
     0.550   0.168625E+01   0.293623E-01
     0.555   0.168604E+01   0.293731E-01
     0.560   0.168584E+01   0.293838E-01
     0.565   0.168565E+01   0.293944E-01
     0.570   0.168546E+01   0.294050E-01
     0.575   0.168527E+01   0.294155E-01
     0.580   0.168511E+01   0.294259E-01
     0.585   0.168494E+01   0.294364E-01
     0.590   0.168478E+01   0.294468E-01
     0.595   0.168462E+01   0.294571E-01
     0.600   0.168448E+01   0.294675E-01
     0.605   0.168434E+01   0.294778E-01
     0.610   0.168421E+01   0.294881E-01
     0.615   0.168408E+01   0.294984E-01
     0.620   0.168395E+01   0.295087E-01
     0.625   0.168383E+01   0.295189E-01
     0.630   0.168371E+01   0.295292E-01
     0.635   0.168360E+01   0.295393E-01
     0.640   0.168349E+01   0.295495E-01
     0.645   0.168339E+01   0.295597E-01
     0.650   0.168330E+01   0.295698E-01
     0.655   0.168321E+01   0.295799E-01
     0.660   0.168311E+01   0.295902E-01
     0.665   0.168302E+01   0.296003E-01
     0.670   0.168293E+01   0.296105E-01
     0.675   0.168285E+01   0.296207E-01
     0.680   0.168278E+01   0.296310E-01
     0.685   0.168270E+01   0.296414E-01
     0.690   0.168263E+01   0.296517E-01
     0.695   0.168256E+01   0.296621E-01
     0.700   0.168250E+01   0.296727E-01
     0.705   0.168243E+01   0.296833E-01
     0.710   0.168238E+01   0.296940E-01
     0.715   0.168232E+01   0.297047E-01
     0.720   0.168226E+01   0.297156E-01
     0.725   0.168221E+01   0.297265E-01
     0.730   0.168216E+01   0.297374E-01
     0.735   0.168211E+01   0.297484E-01
     0.740   0.168206E+01   0.297595E-01
     0.745   0.168201E+01   0.297706E-01
     0.750   0.168197E+01   0.297818E-01
     0.755   0.168193E+01   0.297929E-01
     0.760   0.168190E+01   0.298041E-01
     0.765   0.168186E+01   0.298153E-01
     0.770   0.168182E+01   0.298265E-01
     0.775   0.168178E+01   0.298376E-01
     0.780   0.168175E+01   0.298487E-01
     0.785   0.168172E+01   0.298599E-01
     0.790   0.168169E+01   0.298710E-01
     0.795   0.168167E+01   0.298820E-01
     0.800   0.168164E+01   0.298929E-01
     0.805   0.168161E+01   0.299039E-01
     0.810   0.168158E+01   0.299147E-01
     0.815   0.168156E+01   0.299255E-01
     0.820   0.168154E+01   0.299362E-01
     0.825   0.168153E+01   0.299468E-01
     0.830   0.168150E+01   0.299575E-01
     0.835   0.168148E+01   0.299680E-01
     0.840   0.168147E+01   0.299785E-01
     0.845   0.168145E+01   0.299889E-01
     0.850   0.168143E+01   0.299993E-01
     0.855   0.168142E+01   0.300097E-01
     0.860   0.168140E+01   0.300201E-01
     0.865   0.168139E+01   0.300305E-01
     0.870   0.168138E+01   0.300410E-01
     0.875   0.168137E+01   0.300514E-01
     0.880   0.168136E+01   0.300617E-01
     0.885   0.168135E+01   0.300720E-01
     0.890   0.168134E+01   0.300824E-01
     0.895   0.168133E+01   0.300928E-01
     0.900   0.168131E+01   0.301031E-01
     0.905   0.168130E+01   0.301134E-01
     0.910   0.168130E+01   0.301236E-01
     0.915   0.168129E+01   0.301338E-01
     0.920   0.168129E+01   0.301440E-01
     0.925   0.168128E+01   0.301541E-01
     0.930   0.168128E+01   0.301641E-01
     0.935   0.168127E+01   0.301741E-01
     0.940   0.168127E+01   0.301840E-01
     0.945   0.168126E+01   0.301937E-01
     0.950   0.168126E+01   0.302034E-01
     0.955   0.168126E+01   0.302129E-01
     0.960   0.168126E+01   0.302224E-01
     0.965   0.168126E+01   0.302317E-01
     0.970   0.168126E+01   0.302408E-01
     0.975   0.168125E+01   0.302498E-01
     0.980   0.168125E+01   0.302587E-01
     0.985   0.168125E+01   0.302673E-01
     0.990   0.168125E+01   0.302759E-01
     0.995   0.168125E+01   0.302843E-01
     1.000   0.168125E+01   0.302926E-01
     1.005   0.168125E+01   0.303008E-01
     1.055   0.168125E+01   0.303769E-01
     1.105   0.168124E+01   0.304500E-01
     1.155   0.168122E+01   0.305314E-01
     1.205   0.168117E+01   0.306296E-01
     1.255   0.168112E+01   0.307491E-01
     1.305   0.168106E+01   0.308891E-01
     1.355   0.168099E+01   0.310443E-01
     1.405   0.168092E+01   0.312060E-01
     1.455   0.168085E+01   0.313667E-01
     1.505   0.168076E+01   0.315216E-01
     1.555   0.168065E+01   0.316698E-01
     1.605   0.168052E+01   0.318149E-01
     1.655   0.168035E+01   0.319632E-01
     1.705   0.168017E+01   0.321173E-01
     1.755   0.167995E+01   0.322784E-01
     1.805   0.167971E+01   0.324462E-01
     1.855   0.167946E+01   0.326194E-01
     1.905   0.167918E+01   0.327981E-01
     1.955   0.167888E+01   0.329822E-01
     2.005   0.167856E+01   0.331713E-01
     2.055   0.167822E+01   0.333647E-01
     2.105   0.167786E+01   0.335609E-01
     2.155   0.167748E+01   0.337575E-01
     2.205   0.167709E+01   0.339532E-01
     2.255   0.167667E+01   0.341476E-01
     2.305   0.167624E+01   0.343409E-01
     2.355   0.167578E+01   0.345337E-01
     2.405   0.167529E+01   0.347268E-01
     2.455   0.167478E+01   0.349211E-01
     2.505   0.167425E+01   0.351170E-01
     2.555   0.167368E+01   0.353150E-01
     2.605   0.167311E+01   0.355156E-01
     2.655   0.167250E+01   0.357192E-01
     2.705   0.167187E+01   0.359263E-01
     2.755   0.167122E+01   0.361372E-01
     2.805   0.167055E+01   0.363521E-01
     2.855   0.166985E+01   0.365714E-01
     2.905   0.166913E+01   0.367951E-01
     2.955   0.166840E+01   0.370235E-01
     3.005   0.166764E+01   0.372567E-01
     3.055   0.166686E+01   0.374944E-01
     3.105   0.166608E+01   0.377352E-01
     3.155   0.166527E+01   0.379776E-01
     3.205   0.166445E+01   0.382198E-01
     3.255   0.166362E+01   0.384602E-01
     3.305   0.166277E+01   0.386973E-01
     3.355   0.166189E+01   0.389300E-01
     3.405   0.166100E+01   0.391571E-01
     3.455   0.166010E+01   0.393777E-01
     3.505   0.165918E+01   0.395901E-01
     3.555   0.165823E+01   0.397936E-01
     3.605   0.165727E+01   0.399872E-01
     3.655   0.165628E+01   0.401699E-01
     3.705   0.165527E+01   0.403406E-01
     3.755   0.165423E+01   0.404986E-01
     3.805   0.165316E+01   0.406436E-01
     3.855   0.165207E+01   0.407745E-01
     3.905   0.165094E+01   0.408907E-01
     3.955   0.164978E+01   0.409920E-01
     4.005   0.164857E+01   0.410782E-01
     4.055   0.164733E+01   0.411502E-01
     4.105   0.164604E+01   0.412117E-01
     4.155   0.164469E+01   0.412658E-01
     4.205   0.164331E+01   0.413165E-01
     4.255   0.164186E+01   0.413688E-01
     4.305   0.164036E+01   0.414254E-01
     4.355   0.163881E+01   0.414887E-01
     4.405   0.163722E+01   0.415619E-01
     4.455   0.163556E+01   0.416475E-01
     4.505   0.163387E+01   0.417479E-01
     4.555   0.163212E+01   0.418659E-01
     4.605   0.163033E+01   0.420043E-01
     4.655   0.162849E+01   0.421656E-01
     4.705   0.162661E+01   0.423521E-01
     4.755   0.162469E+01   0.425647E-01
     4.805   0.162273E+01   0.428057E-01
     4.855   0.162074E+01   0.430778E-01
     4.905   0.161871E+01   0.433824E-01
     4.955   0.161666E+01   0.437202E-01
     5.005   0.161458E+01   0.440913E-01
     5.055   0.161250E+01   0.444979E-01
     5.105   0.161040E+01   0.449334E-01
     5.155   0.160830E+01   0.453916E-01
     5.205   0.160620E+01   0.458672E-01
     5.255   0.160411E+01   0.463537E-01
     5.305   0.160202E+01   0.468419E-01
     5.355   0.159993E+01   0.473233E-01
     5.405   0.159784E+01   0.477931E-01
     5.455   0.159575E+01   0.482455E-01
     5.505   0.159366E+01   0.486740E-01
     5.555   0.159155E+01   0.490710E-01
     5.605   0.158943E+01   0.494343E-01
     5.655   0.158730E+01   0.497604E-01
     5.705   0.158513E+01   0.500410E-01
     5.755   0.158294E+01   0.502664E-01
     5.805   0.158071E+01   0.504325E-01
     5.855   0.157843E+01   0.505370E-01
     5.905   0.157608E+01   0.505757E-01
     5.955   0.157366E+01   0.505425E-01
     6.005   0.157114E+01   0.504382E-01
     6.055   0.156850E+01   0.502811E-01
     6.105   0.156573E+01   0.500837E-01
     6.155   0.156282E+01   0.498589E-01
     6.205   0.155976E+01   0.496215E-01
     6.255   0.155656E+01   0.493882E-01
     6.305   0.155321E+01   0.491854E-01
     6.355   0.154972E+01   0.490290E-01
     6.405   0.154610E+01   0.489275E-01
     6.455   0.154236E+01   0.488926E-01
     6.505   0.153850E+01   0.489392E-01
     6.555   0.153454E+01   0.490838E-01
     6.605   0.153051E+01   0.493394E-01
     6.655   0.152642E+01   0.497002E-01
     6.705   0.152236E+01   0.502541E-01
     6.755   0.151845E+01   0.509064E-01
     6.805   0.151480E+01   0.513013E-01
     6.855   0.151100E+01   0.513869E-01
     6.905   0.150684E+01   0.513247E-01
     6.955   0.150251E+01   0.513270E-01
     7.005   0.149803E+01   0.513730E-01
     7.055   0.149339E+01   0.514278E-01
     7.105   0.148862E+01   0.515059E-01
     7.155   0.148370E+01   0.516059E-01
     7.205   0.147864E+01   0.517278E-01
     7.255   0.147344E+01   0.518715E-01
     7.305   0.146808E+01   0.520371E-01
     7.355   0.146258E+01   0.522246E-01
     7.405   0.145692E+01   0.524340E-01
     7.455   0.145111E+01   0.526651E-01
     7.505   0.144513E+01   0.529182E-01
     7.555   0.143897E+01   0.531932E-01
     7.605   0.143263E+01   0.534900E-01
     7.655   0.142610E+01   0.538087E-01
     7.705   0.141938E+01   0.541493E-01
     7.755   0.141245E+01   0.545117E-01
     7.805   0.140530E+01   0.548960E-01
     7.855   0.139792E+01   0.553022E-01
     7.905   0.139029E+01   0.557302E-01
     7.955   0.138240E+01   0.561801E-01
     8.005   0.137424E+01   0.566519E-01
     8.055   0.136578E+01   0.571455E-01
     8.105   0.135701E+01   0.576610E-01
     8.155   0.134789E+01   0.581984E-01
     8.205   0.133841E+01   0.587577E-01
     8.255   0.132854E+01   0.593389E-01
     8.305   0.131823E+01   0.599419E-01
     8.355   0.130743E+01   0.605667E-01
     8.405   0.129612E+01   0.612132E-01
     8.455   0.128423E+01   0.618820E-01
     8.505   0.127170E+01   0.625746E-01
     8.555   0.125839E+01   0.632801E-01
     8.605   0.124417E+01   0.639892E-01
     8.655   0.122929E+01   0.648973E-01
     8.705   0.121325E+01   0.659111E-01
     8.755   0.119423E+01   0.662287E-01
     8.805   0.117211E+01   0.670745E-01
     8.855   0.114907E+01   0.719603E-01
     8.905   0.112637E+01   0.811781E-01
     8.955   0.110403E+01   0.918535E-01
     9.005   0.108220E+01   0.103105E+00
     9.055   0.106102E+01   0.115539E+00
     9.105   0.104053E+01   0.128549E+00
     9.155   0.102046E+01   0.141028E+00
     9.205   0.999632E+00   0.152325E+00
     9.255   0.976406E+00   0.162357E+00
     9.305   0.949362E+00   0.172178E+00
     9.355   0.917403E+00   0.183620E+00
     9.405   0.880121E+00   0.198517E+00
     9.455   0.837800E+00   0.219008E+00
     9.505   0.790784E+00   0.247673E+00
     9.555   0.740340E+00   0.287091E+00
     9.605   0.689962E+00   0.340446E+00
     9.655   0.644289E+00   0.409995E+00
     9.705   0.608617E+00   0.494071E+00
     9.755   0.587930E+00   0.588878E+00
     9.805   0.584138E+00   0.690524E+00
     9.855   0.597756E+00   0.795067E+00
     9.905   0.630038E+00   0.900788E+00
     9.955   0.682587E+00   0.100589E+01
    10.005   0.761010E+00   0.110415E+01
    10.055   0.871888E+00   0.118536E+01
    10.105   0.100957E+01   0.123254E+01
    10.155   0.115331E+01   0.122334E+01
    10.205   0.127726E+01   0.115199E+01
    10.255   0.135176E+01   0.104449E+01
    10.305   0.135898E+01   0.932663E+00
    10.355   0.132840E+01   0.851198E+00
    10.405   0.129544E+01   0.826633E+00
    10.455   0.126773E+01   0.823212E+00
    10.505   0.124216E+01   0.790324E+00
    10.555   0.120381E+01   0.733996E+00
    10.605   0.113370E+01   0.700419E+00
    10.655   0.103273E+01   0.718533E+00
    10.705   0.932049E+00   0.780500E+00
